/absorption data CdS taken fromS. .Adachi
/"Optical constants of crystalline and amorphous semiconductors"
/pp.502-506  (for E perpendicularto .c)
/lambda[nm]     alfa[m^-1]
301.600861      23496342.31
300.009583      23427972.62
303.192139      23591601.55
304.783417      23713617.8
306.374725      23862053.87
307.966034      24036379.99
309.557373      24235910.41
311.148682      24459697.61
312.740051      24706439.94
314.33136       24974678.64
315.92276       25262644.81
317.514099      25568272.58
319.105499      25889200.61
320.696869      26222778.62
322.288269      26566162.63
323.879669      26916261.35
325.471069      27269694.02
327.0625        27623027.79
328.6539        27972712.89
330.245331      28315181.46
331.836792      28646749.91
333.428223      28963923.21
335.019684      29263299.98
336.611145      29541625.52
338.202576      29795966.64
339.794037      30023548.18
341.385529      30221983.12
342.97699       30389190.88
344.568481      30523556.19
346.159973      30623682.93
347.751434      30688670.64
349.342957      30718020.06
350.934418      30711474.8
352.52594       30669296.4
354.117401      30591975.86
355.708923      30480363.02
357.300415      30335521.89
358.891907      30158837.46
360.483429      29951844.65
362.074921      29716301.84
363.666443      29454134.09
365.257965      29167240.29
366.849457      28857760.34
368.440979      28527790.12
370.032471      28179466.7
371.623962      27814883.69
373.215485      27436132.45
374.806976      27045275.98
376.398499      26644232.86
377.98999       26234931.8
379.581482      25819162.93
381.173004      25398620.96
382.764465      24974849.03
384.355988      24549350.66
385.947449      24123522.85
387.538971      23698529.42
389.130432      23275562.64
390.721924      22855621.48
392.313416      22439664.11
393.904846      22028475.25
395.496338      21622784.83
397.087799      21223228.19
398.67926       20830360.65
400.270691      20444637.73
401.862122      20066473.37
403.453583      19696181.61
405.045013      19334044.99
406.636414      18980245.76
408.227844      18634960.76
409.819275      18298276.15
411.410706      17970336.53
413.002045      17651105.63
414.593445      17340628.1
416.184814      17038837.65
417.776215      16745752.75
419.367584      16461216.92
420.958923      16185222.63
422.550232      15917613.85
424.141602      15658292.76
425.73291       15407111.96
427.324219      15163948.74
428.915527      14928626.04
430.506836      14701027.64
432.098083      14480953.98
433.689362      14268290.07
435.280609      14062812.38
436.871887      13864411.58
438.463135      13672869.24
440.054352      13488053.84
441.645569      13309777.86
443.236725      13137887.62
444.827942      12972197.94
446.419098      12812589.79
448.010254      12658828.26
449.601379      12510824.19
451.192535      12368375.66
452.7836        12231344.16
454.374695      12099586.49
455.965759      11972938.82
457.556824      11851237.12
459.147888      11734375.27
460.738922      11622194.77
462.329987      11514564.17
463.920959      11411331.39
465.511963      11312340.22
467.102875      11217523.44
468.693848      11126700.75
470.28476       11039754.36
471.875671      10956537.1
473.466614      10876984.07
475.057465      10800902.55
476.648346      10728228.63
478.239166      10658825.23
479.829987      10592553.65
481.420746      10529305.91
483.011566      10468971.37
484.602295      10411446.84
486.193054      10356624.57
487.783752      10304351.23
489.374451      10254549.28
490.965149      10207117.95
492.555756      10161908.54
494.146393      10118846.23
495.737         10077810.18
497.327576      10038705.13
498.918152      10001386.04
500.508698      9965811.367
502.099213      9931814.364
503.689697      9899330.174
505.280182      9868219.514
506.870605      9838421.086
508.461029      9809797.761
510.051422      9782265.24
511.641785      9755739.633
513.232117      9730089.156
514.822449      9705231.871
516.41272       9681064.246
518.003052      9657480.597
519.593262      9634430.587
521.183472      9611762.378
522.773682      9589424.404
524.363831      9567294.934
525.953979      9545323.189
527.544067      9523389.689
529.134155      9501421.748
530.724182      9479349.724
532.314209      9457055.406
533.904175      9434518.32
535.494141      9411598.727
537.084106      9388253.243
538.67395       9364417.73
540.263855      9340023.563
541.853699      9314984.988
543.443481      9289238.29
545.033325      9262741.43
546.623047      9235458.087
548.212769      9207278.41
549.802429      9178188.349
551.39209       9148149.136
552.981689      9117101.814
554.571289      9084986.021
556.160828      9051789.329
557.750366      9017474.933
559.339844      8982030.838
560.929321      8945398.481
562.518677      8907545.148
564.108093      8868500.569
565.697449      8828210.021
567.286743      8786683.993
568.876099      8743886.735
570.465271      8699832.639
572.054565      8654505.537
573.643677      8607920.599
575.232788      8560085.514
576.821899      8510988.81
578.411011      8460640.871
580.000061      8409074.564
581.588989      8356279.111
583.177979      8302305.009
584.766907      8247142.139
586.355774      8190843.002
587.94458       8133416.792
589.533386      8074914.407
591.122192      8015323.262
592.710876      7954717.362
594.299561      7893124.323
595.888245      7830552.066
597.476807      7767094.116
599.065369      7702755.911
600.653931      7637565.359
602.242371      7571593.344
603.830811      7504886.106
605.419189      7437491.711
607.007568      7369414.768
608.595886      7300764.619
610.184143      7231545.72
611.772339      7161824.111
613.360535      7091664.442
614.94873       7021070.118
616.536804      6950147.774
618.124878      6878918.884
619.712891      6807427.035
621.300842      6735755.146
622.888794      6663924.078
624.476685      6591996.074
626.064453      6520012.648
627.652222      6448032.975
629.23999       6376116.966
630.827698      6304304.577
632.415344      6232634.773
634.00293       6161165.911
635.590515      6089935.448
637.17804       6019001.333
638.765503      5948420.38
640.352905      5878209.56
641.940247      5808444.411
643.527588      5739140.619
645.114868      5670353.752
646.702026      5602138.813
648.289246      5534509.379
649.876343      5467520.753
651.46344       5401205.778
653.050415      5335618.274
654.63739       5270790.329
656.224365      5206754.735
657.811218      5143544.925
659.398071      5081192.08
660.984802      5019747.997
662.571533      4959224.169
664.158203      4899652.296
665.744812      4841101.067
667.33136       4783563.188
668.917847      4727087.797
670.504333      4671685.664
672.090698      4617406.111
673.677124      4564258.602
675.263367      4512311.251
676.849609      4461535.809
678.435791      4411998.541
680.021912      4363709.256
681.608032      4316714.167
683.194031      4271005.008
684.779968      4226645.871
686.365906      4183645.311
687.951782      4142012.581
689.537537      4101793.263
691.123291      4062995.087
692.708984      4025663.071
694.294617      3989805.256
695.880188      3955465.748
697.465698      3922634.177
699.051147      3891372.189
700.636597      3861668.779
702.221863      3833550.195
703.80719       3807040.096
705.392395      3782146.441
706.977539      3758893.574
708.562622      3737270.477
710.147705      3717319.005
711.732666      3698993.307
713.317627      3682299.526
714.902466      3667245.014
716.487244      3653765.95
718.072021      3641834.094
719.656677      3631369.973
721.241333      3622311.025
722.825806      3614544.597
724.410339      3607939.549
725.994751      3602281.439
727.579163      3597390.741
729.163452      3592952.808
730.747681      3588654.804
732.331848      3584066.79
733.915955      3578694.021
735.5           3571926.417
737.083984      3563090.927
738.667847      3551350.419
740.25177       3535771.901
741.835571      3515330.434
743.41925       3488856.787
745.002869      3455107.027
746.586487      3412830.964
748.170044      3360739.142
749.753479      3297687.089
751.336853      3222689.975
752.920166      3135071.986
754.503418      3034529.437
756.086609      2921309.72
757.669739      2796172.373
759.252808      2660516.164
760.835754      2516257.016
762.41864       2365756.063
764.001465      2211700.555
765.58429       2056870.263
767.166931      1904006.292
768.749573      1755580.958
770.332153      1613704.306
771.914673      1480013.022
773.497009      1355708.172
775.079407      1241477.68
776.661682      1137616.273
778.243835      1044092.953
779.825989      960554.5065
781.408081      886490.008
782.990051      821248.177
784.57196       764134.7978
786.153809      714397.3731
787.735535      671289.5084
789.317261      634102.4791
790.898865      602165.2237
792.480408      574859.4658
794.06189       551635.2183
795.64325       531994.2977
797.224548      515458.1567
798.805786      501646.4816
800.387024      490119.1202
801.968079      479358.2115
803.549072      468858.6536
805.130005      458634.5133
806.710876      448684.1702
808.291626      439006.0476
809.872375      429567.4464
811.453003      420413.4937
813.033569      411496.1211
814.614014      402829.4068
816.194458      394427.231
817.77478       386242.0115
819.35498       378303.1672
820.935181      370593.9069
822.515259      363112.962
824.095215      355843.765
825.67511       348800.2926
827.255005      341966.0326
828.834656      335339.8871
830.414368      328905.4074
831.993958      322676.6798
833.573425      316637.4552
835.152954      310786.5868
836.732239      305123.1208
838.311523      299630.9142
839.890747      294323.9855
841.469849      289171.4401
843.048828      284202.2242
844.627747      279385.5267
846.206543      274720.5135
847.785339      270206.2957
849.364075      265856.8483
850.942566      261641.771
852.521118      257574.9637
854.099487      253655.6775
855.677856      249853.6646
857.256165      246182.9551
858.83429       242657.4933
860.412415      239232.6057
861.990356      235951.5308
863.568237      232769.784
865.146118      229715.8594
866.723816      226760.1056
868.301453      223916.4282
869.879028      221184.2174
871.456421      218548.4752
873.033875      216023.0129
874.611145      213578.5544
876.188354      211243.319
877.765442      208988.0955
879.342468      206826.7309
880.919434      204744.4534
882.496277      202755.0945
884.073059      200843.926
885.649719      199010.5436
887.226257      197254.5319
888.802734      195575.465
890.379089      193958.8318
891.955383      192418.3779
893.531555      190953.7129
895.107727      189536.3283
896.683716      188194.0454
898.259644      186912.4513
899.835449      185705.2066
901.411255      184544.0104
902.986816      183428.6715
904.562378      182386.6878
906.137817      181389.9618
907.713196      180438.2449
909.288452      179545.1373
910.863647      178696.5245
912.43866       177892.1994
914.013672      177131.8974
915.588562      176415.4149
917.163391      175756.217
918.737976      175126.6849
920.312622      174526.6078
921.887085      173983.1468
923.461548      173468.7582
925.035828      172983.3279
926.609985      172540.2603
928.184082      172125.7874
929.758118      171753.2817
931.332031      171409.0471
932.905762      171092.9512
934.479492      170804.8185
936.053101      170544.5298
937.626648      170311.9342
939.200012      170093.5328
940.773315      169915.9505
942.346497      169752.3199
943.919617      169629.1899
945.492554      169506.5025
947.065552      169424.0231
948.638306      169355.1093
950.21106       169299.6501
951.783569      169270.8272
953.356079      169255.282
954.928528      169266.1212
956.500793      169276.9574
958.072937      169327.1334
959.64502       169377.1557
961.21698       169440.1112
962.788879      169528.9794
964.360657      169630.6115
965.932251      169731.9453
967.503784      169858.9408
969.075317      169998.4935
970.646606      170137.6371
972.217896      170302.185
973.78894       170466.245
975.359985      170642.6617
976.930847      170831.4079
978.501648      171019.5587
980.072388      171232.7641
981.642944      171445.3193
983.213501      171657.1953
984.783813      171893.9627
986.354126      172129.976
987.924194      172365.2817
989.494324      172612.5313
991.06427       172859.0296
992.634094      173117.4307
994.203796      173387.6784
995.773315      173657.1059
997.342896      173925.6746
998.912292      174206.0133
1012.27179      176674.5273
1015.750671     177343.8592
1019.227905     178008.9096
1022.703796     178694.2502
1026.178101     179362.9779
1029.650879     180039.6657
1033.122314     180712.0391
1036.592285     181380.1653
1040.060791     182044.0898
1043.527832     182703.8572
1046.99353      183347.4864
1050.457886     183987.1037
1053.920776     184610.8478
1057.382446     185230.7202
1060.842651     185823.1094
1064.301514     186423.6905
1067.759155     186997.0537
1071.215576     187555.1966
1074.670532     188098.311
1078.124268     188638.158
1081.576904     189151.5095
1085.028076     189650.2667
1088.478149     190134.5068
1091.927002     190604.3899
1095.374634     191048.5796
1098.821045     191478.7571
1102.266357     191895.034
1105.710571     192297.5411
1109.153564     192675.0983
1112.595459     193039.2132
1116.036133     193378.7712
1119.47583      193705.1843
1122.914429     194018.5952
1126.352051     194307.9447
1129.788452     194584.6195
1133.223877     194848.6936
1136.658447     195089.2043
1140.091919     195317.4304
1143.524292     195522.4927
1146.955811     195704.558
1150.38623      195885.7244
1153.815796     196044.1734
1157.244385     196180.1284
1160.672119     196304.5965
1164.098999     196417.6794
1167.524902     196508.7337
1170.949951     196588.6653
1174.374146     196646.87
1177.797485     196694.2084
1181.219971     196730.7747
1184.641724     196746.0332
1188.062622     196750.7669
1191.482666     196734.518
1194.9021       196718.4625
1198.320557     196671.1951
1201.738525     196624.2765
1205.155518     196556.926
1208.572021     196479.637
1211.987671     196392.5522
1215.40271      196285.3744
1218.817139     196168.5837
1222.230713     196042.2999
1225.643799     195906.5433
1229.056396     195751.1671
1232.46814      195586.5894
1235.879395     195412.8283
1239.290039     195229.9788
1242.700073     195038.1152
1246.109619     194827.2064
1249.518677     194617.5247
1252.927002     194389.0359
1256.335083     194151.8209
1259.742432     193906.0254
1263.149536     193661.5935
1266.55603      193388.801
1269.962158     193117.5275
1273.367798     192837.9094
1276.772949     192550.0131
1280.177856     192253.8676
1283.582275     191949.5749
1286.986206     191637.1993
1290.389893     191316.7682
1293.793213     190988.3631
1297.196289     190652.0286
1300.598999     190307.8445
1304.001343     189955.8718
1307.403564     189596.1361
1310.805298     189238.338
1314.206787     188863.301
1317.608154     188490.2179
1321.009277     188100.0628
1324.410156     187711.9462
1327.810791     187325.8522
1331.211304     186922.8659
1334.611572     186521.9673
1338.011719     186104.3371
1341.411865     185688.8242
1344.811646     185275.4627
1348.211426     184845.5422
1351.611084     184417.8011
1355.010742     183982.9311
1358.410278     183541.0023
1361.809692     183101.2964
1365.209106     182654.5742
1368.608521     182200.8881
1372.007935     181740.29
1375.407349     181281.9687
1378.806763     180816.7922
1382.206177     180353.9039
1385.605713     179884.2006
1389.005127     179407.764
1392.404785     178933.6224
1395.804443     178452.7863
1399.204346     177974.2557
1402.604248     177489.0846
1406.004395     176997.2903
1409.404541     176507.8689
1412.804932     176011.8771
1416.205566     175518.2369
1419.606323     175018.0934
1423.007324     174520.3105
1426.408447     174016.0755
1429.809937     173505.4049
1433.21167      173005.898
1436.613525     172491.2453
1440.015869     171978.9659
1443.418335     171469.087
1446.821167     170952.8763
1450.224365     170439.0451
1453.62793      169918.931
1457.031738     169401.2186
1460.436035     168885.8629
1463.840576     168364.2905
1467.245605     167836.517
1470.651123     167311.1319
1474.056885     166788.1467
1477.463135     166259.0113
1480.869873     165732.2554
1484.2771       165207.8631
1487.684814     164677.371
1491.093018     164149.2496
1494.501831     163615.0608
1497.911133     163083.2501
1501.320923     162553.802